; -*- coding: cp1252; fmf-version: 1.0 -*-
[*reference]
title	:optical constants of Aluminium
short name	:Al.fmf
long name	:Al.fmf
creator	:chaenisch
creator fullname	:Christian Haenisch
created	:2022-03-21 22:58:00+01:00
place	:
measurement type	:optical constants
method	:unknown
comment	:
from literature	:TRUE
references	:. D. RakiÄ‡., Appl. Opt. 34, 4755-4767 (1995)
references comment	:
error	:FALSE
error code	:NaN

[processing parameters]
substrate temperature	:0 degC
wafer number	:

[setup]
fit program	:0
fit program version	:0
wrapper	:0
wrapper program version	:0

[batches]
batch number material 1	:
batch number material 2	:
batch number material 3	:
material class 1	:
material class 2	:
material class 3	:

[input parameters]
;evaluation
spectral range end	  :
spectral range start	  :
spectral resolution	  : NaN

spectral measurement ID	:
substrate thickness	:0 mm
substrate file	:
substrate file ID	:
used spectra and thickness	:
optimization type	:
relative error R	:0%
relative error T	:0%

[output parameter]
deviation	:
optimized thickness	:
mean absolute error n	:NaN%
mean absolute error k	:NaN%
max absolute error n	:NaN
max absolute error k	:NaN
comment	:
material type : isotropic

[*data definitions]
wavelength	:\lambda [nm]
n	:n(\lambda)
k	:k(\lambda)

[*data]
0.12399	0.9999946	8.24E-08
0.13051	0.999994	1.27E-07
0.13776	0.999993	1.25E-07
0.15498	0.999991	1.92E-07
0.17712	0.999989	3.15E-07
0.20664	0.999984	5.51E-07
0.24797	0.99998	1.0726E-06
0.30996	0.99997	2.4843E-06
0.35424	0.99995	4.0484E-06
0.41328	0.99994	7.1408E-06
0.49594	0.99991	1.3642E-05
0.61993	0.99987	3.2079E-05
0.65255	0.99986	3.8497E-05
0.68881	0.99985	4.7138E-05
0.72932	0.99984	5.7974E-05
0.74021	0.99984	6.1633E-05
0.77734	0.99986	7.4862E-05
0.78472	0.99987	7.848E-05
0.79274	0.9999	8.5418E-05
0.79376	0.99992	7.1847E-05
0.79478	0.99993	4.9998E-05
0.79529	0.99992	4.1131E-05
0.7958	0.99992	3.2911E-05
0.79785	0.99991	2.3687E-05
0.79887	0.99991	1.1026E-05
0.7999	0.99989	6.0484E-06
0.8051	0.99987	6.1901E-06
0.81569	0.99985	6.4818E-06
0.82657	0.99983	6.8049E-06
0.85507	0.99981	7.8422E-06
0.88561	0.99979	8.94E-06
0.95373	0.99974	1.1636E-05
1.0332	0.99968	1.5628E-05
1.1271	0.99961	2.1586E-05
1.2399	0.99953	3.1115E-05
1.3776	0.9994	4.6771E-05
1.5498	0.99924	7.2992E-05
1.7712	0.99898	0.00011811
2.0664	0.9986	0.00022001
2.4797	0.99797	0.00043503
3.0996	0.99694	0.00096887
4.1328	0.9948	0.0023492
4.9594	0.99313	0.0041863
6.1993	0.99111	0.0075099
6.5255	0.99054	0.0084716
6.8881	0.99007	0.0096517
7.2932	0.98909	0.010987
7.7491	0.98912	0.013728
8.2657	0.98966	0.014773
8.5507	0.98934	0.015437
8.8561	0.98883	0.016304
9.1841	0.98793	0.017765
9.5373	0.98761	0.020606
9.9188	0.98941	0.023421
10.332	0.99139	0.024063
10.781	0.99233	0.024928
11.271	0.99415	0.025452
11.808	0.99285	0.024415
12.399	0.99123	0.02992
12.652	0.99265	0.033061
12.915	0.99652	0.035883
13.19	1.0012	0.035311
13.477	1.0041	0.033392
13.776	1.0058	0.030918
14.089	1.006	0.028956
14.417	1.0065	0.028232
14.76	1.0074	0.026826
15.12	1.0077	0.02546
15.498	1.0075	0.024476
15.694	1.0075	0.024501
15.896	1.0078	0.024757
16.102	1.0095	0.02518
16.314	1.0106	0.023853
16.422	1.011	0.023955
16.531	1.0118	0.02402
16.642	1.0132	0.024343
16.755	1.0151	0.024184
16.777	1.0156	0.024228
16.8	1.0161	0.024282
16.823	1.0167	0.024375
16.846	1.0173	0.024499
16.869	1.0181	0.024831
16.892	1.0194	0.025432
16.915	1.0219	0.026018
16.938	1.0259	0.024227
16.961	1.0262	0.019564
16.984	1.0246	0.019145
17.008	1.0255	0.020012
17.031	1.0305	0.020072
17.054	1.0349	0.012476
17.078	1.0305	0.0041164
17.101	1.0249	0.0036218
17.125	1.0226	0.0034141
17.149	1.0206	0.00344
17.172	1.0192	0.0034767
17.196	1.0179	0.0034877
17.208	1.0174	0.0035108
17.22	1.0169	0.0035249
17.463	1.0108	0.0034957
17.712	1.007	0.0035425
18.233	1.0019	0.003673
18.786	0.99791	0.0038926
19.373	0.99457	0.0041092
19.998	0.99143	0.0042397
20.664	0.98827	0.0043696
22.543	0.97998	0.0050004
24.797	0.97048	0.0057469
27.552	0.95834	0.0066191
30.996	0.94189	0.0078466
35.424	0.91802	0.0093121
41.328	0.88013	0.011651
49.594	0.81512	0.015894
61.993	0.67912	0.02234
65.255	0.63242	0.02477
68.881	0.57251	0.027681
72.932	0.49131	0.032409
77.491	0.37197	0.044202
78.472	0.34031	0.04832
79.478	0.30373	0.053349
79.99	0.28271	0.056697
80.51	0.25936	0.061407
81.036	0.23344	0.068348
81.569	0.20569	0.079959
82.109	0.17943	0.094223
82.657	0.15065	0.11041
83.774	0.094517	0.16589
84.921	0.067041	0.2342
86.101	0.054863	0.29293
88.561	0.044168	0.39115
95.373	0.036437	0.59086
103.32	0.035753	0.77163
112.71	0.038468	0.95677
123.99	0.046304	1.1555
137.76	0.057167	1.3775
154.98	0.072505	1.6366
177.12	0.094236	1.9519
206.64	0.12677	2.3563
247.97	0.18137	2.9029
309.96	0.28003	3.7081
326.28	0.31474	3.9165
364.66	0.39877	4.3957
413.28	0.52135	5.0008
442.8	0.6079	5.3676
476.87	0.7278	5.7781
516.6	0.8734	6.2418
563.57	1.0728	6.7839
619.93	1.366	7.4052
652.25	1.5724	7.7354
688.81	1.8301	8.0601
729.32	2.1606	8.3565
774.91	2.6154	8.4914
794.78	2.7675	8.3866
815.69	2.7668	8.2573
837.74	2.6945	8.1878
885.61	2.2802	8.1134
911.66	1.9739	8.3058
939.28	1.6784	8.597
968.63	1.4867	9.0655
999.88	1.4359	9.4939
1033.2	1.3998	9.8914
1127.1	1.3281	10.969
1239.9	1.3157	12.245
1377.6	1.3899	13.784
1549.8	1.5782	15.656
1771.2	1.9205	17.991
2066.4	2.4738	20.982
2479.7	3.3372	25.004
2755.2	3.938	27.58
3099.6	4.7097	30.737
3262.8	5.0735	32.183
3444	5.4903	33.814
3646.6	5.9564	35.608
3874.5	6.4808	37.595
4132.8	7.0796	39.826
4428	7.7757	42.367
4768.7	8.5881	45.257
5166	9.558	48.593
5635.7	10.742	52.518
6199.3	12.195	57.156
6888.1	14.088	62.841
7749.1	16.755	69.857
8856.1	20.837	78.274
10332	26.216	88.197
12399	33.519	101.28
13776	38.461	108.96
15498	43.775	118.39
17712	50.951	129.49
19075	54.413	136.09
20664	58.58	144.23
22543	63.554	153.45
24797	68.535	164.81
27552	75.748	181.78
30996	91.955	199.99
33333	102.1	208.1
40000	125.14	230.19
44444	140.05	243.43
50000	157.3	258.26
57144	177.93	275.34
66666	202.63	295.42
80001	233.56	321.08
99996	274.38	354.35
125000	318.81	391.71
137760	339.62	408.92
153850	364.04	429.62
177120	397.93	458.5
200000	423.96	483.7