; -*- coding: cp1252; fmf-version: 1.0 -*-
[*reference]
title	: optical constants of SiO2 thin-film
short name	: SiO2
long name	: SiO2
creator	: simoji
created	: 2022-10-14 10:00:00+01:00
reference : Rodriguez-de Marcos et al. 2016
comment	: compiled from refractiveindex.info

[output parameter]
material type : isotropic

[*data definitions]
wavelength	:\lambda [nm]
n	:n(\lambda)
k	:k(\lambda)

[*data]
29.9714	0.902641	0.090808
30.2711	0.90136	0.092924
30.5738	0.90007	0.095088
30.8795	0.898776	0.097307
31.1882	0.89748	0.099571
31.5001	0.896181	0.101885
31.8151	0.894879	0.104244
32.1332	0.893574	0.106656
32.4545	0.892272	0.109126
32.779	0.890978	0.111647
33.1067	0.889702	0.114236
33.4378	0.888465	0.116878
33.7721	0.887297	0.119567
34.1098	0.886214	0.122209
34.4509	0.885174	0.124693
34.7954	0.883982	0.126809
35.1433	0.882511	0.128955
35.4947	0.880785	0.131143
35.8496	0.878678	0.133365
36.208	0.876481	0.136553
36.5701	0.874556	0.1399
36.9358	0.872787	0.143213
37.3051	0.871074	0.146494
37.6781	0.869363	0.149742
38.0548	0.86761	0.152958
38.4354	0.865776	0.156142
38.8197	0.863816	0.159295
39.2078	0.861676	0.162416
39.5999	0.859282	0.165507
39.9958	0.856515	0.168567
40.3958	0.853138	0.171596
40.7997	0.84889	0.175068
41.2076	0.844123	0.180254
41.6197	0.83975	0.187256
42.0358	0.83622	0.195025
42.4561	0.833486	0.203259
42.8807	0.831514	0.21184
43.3094	0.830332	0.220746
43.7425	0.830106	0.23005
44.1799	0.831546	0.240085
44.6216	0.835363	0.249093
45.0678	0.840168	0.253264
45.5184	0.842632	0.252294
45.9736	0.840353	0.250013
46.4333	0.834485	0.252464
46.8975	0.828622	0.26046
47.3665	0.824426	0.270022
47.8401	0.821603	0.28039
48.3185	0.820021	0.291335
48.8016	0.819896	0.302881
49.2896	0.821242	0.313805
49.7824	0.823304	0.323299
50.2802	0.825546	0.332287
50.7829	0.828171	0.341151
51.2907	0.831901	0.349806
51.8036	0.834838	0.353096
52.3216	0.833377	0.354566
52.8447	0.829407	0.363136
53.3731	0.827279	0.375978
53.9068	0.827432	0.38814
54.4458	0.82669	0.397168
54.9902	0.824603	0.411489
55.5401	0.827179	0.434434
56.0954	0.836419	0.452936
56.6563	0.847178	0.463637
57.2228	0.856583	0.472242
57.795	0.86484	0.479679
58.3729	0.871787	0.486141
58.9566	0.877083	0.492552
59.5461	0.881709	0.501506
60.1415	0.88723	0.511722
60.7428	0.893026	0.52031
61.3502	0.898025	0.529356
61.9637	0.903174	0.540851
62.5832	0.90997	0.553909
63.209	0.918486	0.566062
63.841	0.927667	0.576825
64.4794	0.937008	0.587342
65.1241	0.946536	0.597691
65.7753	0.955843	0.60778
66.433	0.966053	0.620951
67.0973	0.979802	0.635486
67.7682	0.995102	0.643249
68.4458	1.008374	0.649139
69.1302	1.02101	0.658131
69.8214	1.034766	0.66723
70.5196	1.049624	0.676323
71.2247	1.065902	0.685415
71.9369	1.084606	0.694612
72.6562	1.10556	0.699942
73.3827	1.12624	0.699928
74.1164	1.145158	0.697823
74.8575	1.162416	0.69425
75.606	1.17799	0.689602
76.362	1.191939	0.684428
77.1255	1.20437	0.678849
77.8967	1.215264	0.672967
78.6756	1.224503	0.666877
79.4623	1.231821	0.660683
80.2568	1.236636	0.654506
81.0593	1.23724	0.648542
81.8698	1.235379	0.651989
82.6885	1.238136	0.665935
83.5153	1.24801	0.678049
84.3503	1.260593	0.683634
85.1938	1.272048	0.686072
86.0456	1.281354	0.688541
86.906	1.289829	0.694971
87.775	1.301036	0.706731
88.6526	1.317938	0.719526
89.5391	1.338809	0.725584
90.4344	1.358004	0.724254
91.3386	1.377503	0.729951
92.2519	1.402077	0.731917
93.1744	1.42568	0.719519
94.106	1.442601	0.702867
95.047	1.446582	0.677451
95.9974	1.441629	0.676337
96.9573	1.445146	0.69378
97.9267	1.45689	0.701398
98.9059	1.470505	0.710496
99.8949	1.487711	0.72078
100.894	1.508878	0.72967
101.903	1.533322	0.736282
102.921	1.560693	0.740562
103.951	1.590166	0.740975
104.99	1.623784	0.742378
106.04	1.662533	0.734122
107.1	1.699263	0.709172
108.171	1.72842	0.67681
109.253	1.745129	0.634501
110.345	1.749212	0.602484
111.448	1.751025	0.585491
112.563	1.75456	0.56886
113.688	1.756805	0.551819
114.825	1.746277	0.524736
115.973	1.732785	0.544218
117.133	1.74317	0.584025
118.304	1.776007	0.610374
119.487	1.829849	0.636461
120.682	1.898678	0.623631
121.888	1.964435	0.579259
123.107	2.009692	0.498676
124.338	2.025857	0.418891
125.581	2.027361	0.360819
126.837	2.0246	0.306025
128.105	2.0159	0.251772
129.386	1.998814	0.198057
130.68	1.969362	0.147217
131.987	1.937598	0.126202
133.306	1.912352	0.105396
134.639	1.887895	0.084795
135.986	1.86161	0.066665
137.345	1.836981	0.059834
138.719	1.816682	0.053069
140.106	1.798334	0.046556
141.507	1.781051	0.040788
142.922	1.764089	0.03577
144.351	1.748911	0.035579
145.794	1.73703	0.035389
147.252	1.727671	0.034107
148.724	1.718598	0.028736
150.211	1.708028	0.023419
151.713	1.696399	0.0195
153.23	1.685403	0.019141
154.762	1.675988	0.018794
156.31	1.66756	0.018558
157.873	1.659934	0.018325
159.451	1.653007	0.018094
161.046	1.646665	0.017689
162.656	1.640837	0.01721
164.282	1.635374	0.016326
165.925	1.630056	0.01524
167.584	1.624859	0.014165
169.26	1.619821	0.013101
170.952	1.614983	0.012047
172.662	1.610173	0.010604
174.388	1.604986	0.008981
176.132	1.599814	0.008657
177.893	1.595135	0.008394
179.672	1.59077	0.008133
181.468	1.586642	0.007875
183.283	1.58271	0.007619
185.116	1.578947	0.007365
186.966	1.575331	0.007114
188.836	1.571839	0.006866
190.724	1.568439	0.006632
192.631	1.565172	0.006538
194.557	1.56207	0.006447
196.503	1.559103	0.006357
198.468	1.556257	0.006269
200.452	1.553522	0.006183
202.456	1.55089	0.006099
204.481	1.548354	0.006016
206.525	1.545909	0.005935
208.59	1.54355	0.005856
210.676	1.541272	0.005778
212.783	1.539071	0.005701
214.91	1.536943	0.005626
217.059	1.534884	0.005552
219.23	1.532892	0.00548
221.422	1.530963	0.005409
223.636	1.529095	0.005339
225.872	1.527285	0.005271
228.13	1.52553	0.005203
230.411	1.523828	0.005137
232.715	1.522177	0.005072
235.042	1.520575	0.005008
237.392	1.51902	0.004946
239.766	1.51751	0.004884
242.164	1.516043	0.004823
244.585	1.514619	0.004764
247.031	1.513234	0.004705
249.501	1.511889	0.004647
251.995	1.51058	0.00459
254.515	1.509308	0.004535
257.06	1.50807	0.00448
259.63	1.506866	0.004426
262.226	1.505695	0.004372
264.848	1.504555	0.00432
267.497	1.503445	0.004268
270.171	1.502364	0.004218
272.873	1.501312	0.004168
275.601	1.500287	0.004118
278.357	1.499288	0.00407
281.14	1.498315	0.004022
283.951	1.497367	0.003975
286.791	1.496443	0.003929
289.658	1.495543	0.003883
292.555	1.494665	0.003838
295.48	1.493809	0.003794
298.434	1.492974	0.00375
301.419	1.49216	0.003707
304.432	1.491366	0.003665
307.476	1.490591	0.003623
310.551	1.489835	0.003582
313.656	1.489098	0.003541
316.792	1.488379	0.003501
319.96	1.487676	0.003461
323.159	1.486991	0.003422
326.391	1.486322	0.003384
329.654	1.485668	0.003346
332.95	1.485031	0.003309
336.28	1.484408	0.003272
339.642	1.4838	0.003235
343.038	1.483206	0.003199
346.468	1.482626	0.003164
349.933	1.482059	0.003129
353.432	1.481506	0.003094
356.966	1.480965	0.00306
360.535	1.480437	0.003027
364.14	1.479921	0.002994
367.781	1.479416	0.002961
371.458	1.478923	0.002928
375.173	1.478442	0.002896
378.924	1.477971	0.002865
382.713	1.477511	0.002834
386.54	1.477061	0.002803
390.405	1.476621	0.002773
394.308	1.476191	0.002743
398.251	1.475771	0.002713
402.233	1.47536	0.002684
406.255	1.474958	0.002655
410.317	1.474565	0.002627
414.42	1.474181	0.002599
418.564	1.473805	0.002571
422.749	1.473438	0.002543
426.976	1.473078	0.002516
431.245	1.472727	0.002489
435.558	1.472383	0.002463
439.913	1.472047	0.002437
444.311	1.471718	0.002411
448.754	1.471396	0.002385
453.241	1.471081	0.00236
457.773	1.470773	0.002335
462.35	1.470471	0.002311
466.973	1.470176	0.002286
471.643	1.469888	0.002262
476.359	1.469605	0.002238
481.122	1.469329	0.002215
485.933	1.469058	0.002192
490.792	1.468794	0.002169
495.699	1.468535	0.002146
500.655	1.468281	0.002123
505.662	1.468033	0.002101
510.718	1.46779	0.002079
515.824	1.467553	0.002058
520.982	1.46732	0.002036
526.191	1.467092	0.002015
531.453	1.466869	0.001994
536.767	1.466651	0.001973
542.134	1.466437	0.001953
547.555	1.466228	0.001933
553.03	1.466023	0.001913
558.56	1.465823	0.001893
564.145	1.465627	0.001873
569.786	1.465434	0.001854
575.483	1.465246	0.001835
581.237	1.465062	0.001816
587.049	1.464882	0.001797
592.919	1.464705	0.001779
598.848	1.464532	0.001761
604.835	1.464363	0.001742
610.883	1.464197	0.001725
616.991	1.464034	0.001707
623.161	1.463875	0.001689
629.392	1.46372	0.001672
635.685	1.463567	0.001655
642.041	1.463418	0.001638
648.461	1.463271	0.001621
654.945	1.463128	0.001605
661.494	1.462988	0.001588
668.108	1.46285	0.001572
674.789	1.462716	0.001556
681.536	1.462584	0.00154
688.351	1.462455	0.001524
695.234	1.462328	0.001509
702.185	1.462204	0.001494
709.206	1.462083	0.001478
716.298	1.461964	0.001463
723.46	1.461847	0.001448
730.694	1.461733	0.001434
738.000	1.461622	0.001419
745.379	1.461512	0.001405
752.833	1.461405	0.00139
760.36	1.4613	0.001376
767.963	1.461197	0.001362
775.642	1.461096	0.001349
783.398	1.460997	0.001335
791.231	1.4609	0.001322
799.142	1.460806	0.001308
807.133	1.460713	0.001295
815.204	1.460622	0.001282
823.355	1.460533	0.001269
831.588	1.460445	0.001256
839.903	1.46036	0.001243
848.301	1.460276	0.001231
856.783	1.460194	0.001218
865.35	1.460113	0.001206
874.003	1.460034	0.001194
882.742	1.459957	0.001182
891.569	1.459881	0.00117
900.483	1.459807	0.001158
909.487	1.459734	0.001147
918.581	1.459663	0.001135
927.766	1.459593	0.001124
937.043	1.459525	0.001112
946.413	1.459458	0.001101
955.876	1.459392	0.00109
965.434	1.459328	0.001079
975.087	1.459265	0.001068
984.837	1.459203	0.001058
994.684	1.459143	0.001047
1004.63	1.459083	0.001036
1014.68	1.459025	0.001026
1024.82	1.458968	0.001016
1035.07	1.458912	0.001006
1045.42	1.458858	0.000996
1055.87	1.458804	0.000986
1066.43	1.458752	0.000976
1077.09	1.4587	0.000966
1087.86	1.45865	0.000956
1098.74	1.4586	0.000947
1109.73	1.458552	0.000937
1120.82	1.458504	0.000928
1132.03	1.458458	0.000919
1143.35	1.458412	0.000909
1154.78	1.458368	0.0009
1166.33	1.458324	0.000891
1177.99	1.458281	0.000882
1189.77	1.458239	0.000874
1201.67	1.458198	0.000865
1213.68	1.458157	0.000856
1225.82	1.458118	0.000848
1238.07	1.458079	0.000839
1250.45	1.458041	0.000831
1262.96	1.458004	0.000822
1275.58	1.457967	0.000814
1288.34	1.457931	0.000806
1301.22	1.457896	0.000798
1314.23	1.457862	0.00079
1327.37	1.457828	0.000782
1340.65	1.457795	0.000774
1354.05	1.457763	0.000767
1367.59	1.457731	0.000759
1381.27	1.4577	0.000751
1395.08	1.457669	0.000744
1409.03	1.45764	0.000737
1423.11	1.45761	0.000729
1437.34	1.457582	0.000722
1451.72	1.457553	0.000715
1466.23	1.457526	0.000708
1480.89	1.457499	0.000701
1495.7	1.457472	0.000694
1510.66	1.457447	0.000687